Number of data points      : 237
Chemical shift range (ppm) : 8.203480 8.160109
Chemical shift range (Hz)  : 7790.475586 7749.288086
239
246
254
262
269
273
281
289
298
307
316
325
334
343
353
363
373
383
394
405
416
427
443
452
464
477
489
503
516
531
545
562
578
594
610
627
645
663
681
700
720
741
763
784
807
830
853
879
903
930
957
984
1012
1041
1070
1100
1131
1164
1195
1229
1263
1297
1333
1369
1405
1441
1480
1516
1554
1594
1634
1674
1715
1755
1798
1843
1883
1925
1968
2011
2053
2096
2138
2181
2224
2266
2309
2351
2394
2437
2478
2522
2562
2606
2646
2691
2731
2771
2815
2855
2896
2936
2976
3016
3056
3096
3136
3177
3217
3257
3297
3337
3373
3414
3454
3494
3533
3573
3618
3658
3698
3738
3783
3823
3868
3908
3953
3993
4039
4084
4130
4175
4220
4260
4311
4357
4402
4453
4499
4544
4595
4641
4686
4737
4783
4828
4879
4925
4973
5013
5061
5110
5150
5198
5238
5278
5326
5367
5407
5447
5479
5519
5551
5584
5616
5648
5680
5704
5728
5752
5776
5801
5817
5833
5849
5865
5873
5881
5889
5897
5905
5905
5905
5905
5897
5897
5889
5881
5873
5857
5849
5833
5817
5801
5784
5768
5752
5736
5712
5696
5680
5656
5640
5616
5600
5576
5559
5535
5519
5503
5479
5463
5447
5431
5423
5407
5399
5391
5375
5375
5367
5359
5359
5359
5359
5359
5367
5367
5375
5383
5391
5399
5415
5423
5439
5455
5471
