Number of data points      : 372
Chemical shift range (ppm) : 8.865770 8.797693
Chemical shift range (Hz)  : 8419.423828 8354.773438
-89
-88
-87
-86
-84
-83
-82
-80
-79
-78
-75
-74
-72
-70
-68
-66
-64
-61
-59
-56
-52
-49
-46
-43
-40
-36
-32
-28
-24
-20
-14
-9
-5
0
5
10
17
24
30
37
42
49
57
64
72
80
89
97
106
114
123
132
141
151
160
170
180
191
201
212
223
234
246
257
269
281
293
306
319
333
346
360
375
390
405
421
438
455
473
492
510
531
551
573
595
619
644
669
696
724
754
784
816
850
884
921
960
999
1042
1086
1131
1180
1229
1281
1335
1391
1450
1510
1574
1638
1707
1778
1852
1928
2005
2087
2170
2258
2346
2439
2534
2630
2731
2831
2936
3044
3153
3265
3377
3494
3613
3738
3863
3988
4113
4243
4374
4510
4647
4783
4919
5061
5198
5343
5479
5624
5768
5913
6058
6202
6347
6483
6628
6773
6917
7055
7192
7328
7464
7601
7737
7873
7998
8123
8248
8373
8487
8601
8714
8828
8930
9032
9123
9214
9305
9396
9475
9555
9623
9691
9748
9805
9850
9884
9930
9978
9994
10026
10042
10058
10058
10058
10058
10042
10026
10010
9978
9946
9913
9873
9816
9771
9703
9634
9566
9498
9419
9328
9237
9146
9044
8941
8839
8726
8612
8487
8362
8237
8112
7987
7851
7714
7567
7430
7283
7135
6990
6845
6700
6548
6395
6242
6090
5937
5784
5632
5479
5335
5182
5029
4885
4737
4590
4442
4300
4158
4022
3885
3749
3613
3482
3353
3229
3104
2984
2867
2751
2638
2530
2425
2320
2221
2121
2028
1934
1846
1761
1678
1598
1524
1450
1379
1311
1245
1183
1123
1065
1011
958
908
861
816
775
734
695
659
624
592
560
531
504
478
454
430
409
389
369
351
334
318
303
291
277
265
253
241
231
221
212
203
194
186
178
170
161
154
147
140
133
127
121
115
109
103
97
92
86
80
74
68
62
57
50
47
42
36
31
26
21
17
12
7
2
0
-6
-10
-15
-20
-24
-28
-33
-37
-41
-45
-48
-52
-56
-60
-65
-68
-71
-74
-75
-79
-81
-84
-86
-89
-91
-94
-96
-98
