Number of data points      : 1000 
Chemical shift range (ppm) : 1 1
Chemical shift range (Hz)  : 1190.0 1210.0
0.008038
0.005574
0.002997
0.0022
0.007581
0.007393
0.006955
0.006434
0.000771
0.004035
0.005154
0.001654
0.00681
0.002673
0.002174
0.003255
0.002941
0.003313
0.004622
0.00231
0.002579
0.004372
0.007256
0.004363
0.003329
0.001717
0.000879
0.003727
0.002846
0.004977
0.007847
0.000921
0.004681
0.006136
0.00498
0.005607
0.003004
0.008248
0.003115
0.005677
0.006334
0.00429
0.004845
0.005132
0.006328
0.004816
0.002656
0.005812
0.003537
0.003026
0.006984
0.008092
0.003149
0.004555
0.001622
0.002527
0.008183
0.002794
0.00517
0.000923
0.00508
0.005359
0.001179
0.001737
0.007356
0.007868
0.003051
0.004947
0.006863
0.006634
0.002791
0.006885
0.006535
0.006204
0.003855
0.006881
0.004869
0.006176
0.00196
0.00674
0.003049
0.006131
0.003832
0.003872
0.001452
0.00106
0.001422
0.006331
0.005245
0.003456
0.001855
0.005172
0.006463
0.006117
0.006071
0.005978
0.00698
0.002732
0.004542
0.002455
0.006331
0.007064
0.002557
0.001701
0.001014
0.007721
0.001546
0.001128
0.00314
0.0055
0.006086
0.008167
0.008268
0.008041
0.004347
0.004359
0.003403
0.005033
0.001789
0.001655
0.008673
0.003177
0.004519
0.002526
0.007101
0.006243
0.00238
0.005013
0.001761
0.007676
0.007831
0.008013
0.005486
0.007416
0.007867
0.005322
0.004763
0.005921
0.003523
0.007192
0.001797
0.002907
0.002061
0.002249
0.008178
0.004487
0.006658
0.007549
0.002004
0.005547
0.003555
0.005568
0.003263
0.005395
0.008312
0.008863
0.006029
0.002974
0.002599
0.001395
0.003572
0.004043
0.005404
0.005891
0.003663
0.007061
0.006458
0.008344
0.009048
0.003874
0.007609
0.005862
0.003754
0.002983
0.006651
0.007671
0.003644
0.002668
0.004401
0.004531
0.004744
0.002937
0.008705
0.008657
0.008124
0.002493
0.008252
0.009045
0.009181
0.004119
0.006625
0.007762
0.00907
0.006464
0.004336
0.002485
0.005639
0.008359
0.007591
0.003567
0.006568
0.004645
0.002428
0.001826
0.008735
0.007025
0.008218
0.004516
0.002807
0.002417
0.007678
0.005471
0.004442
0.00833
0.005076
0.005951
0.00885
0.00937
0.002513
0.003739
0.004294
0.003779
0.007425
0.007788
0.005073
0.005187
0.002714
0.002322
0.005286
0.006678
0.004247
0.004101
0.004889
0.004686
0.008405
0.002673
0.008989
0.007355
0.008606
0.003546
0.009158
0.006821
0.00646
0.006964
0.003538
0.009011
0.003374
0.010023
0.003812
0.008203
0.007648
0.00572
0.003868
0.003491
0.004999
0.007628
0.010236
0.004754
0.006753
0.00743
0.009493
0.010145
0.004168
0.003999
0.005657
0.007142
0.00762
0.010195
0.008874
0.006418
0.005557
0.005979
0.00623
0.010296
0.005327
0.00787
0.007681
0.006548
0.008509
0.004891
0.010775
0.009247
0.009684
0.010821
0.006152
0.010675
0.005934
0.008841
0.005541
0.004646
0.006129
0.005729
0.004614
0.005096
0.008295
0.010256
0.007403
0.007124
0.008267
0.005746
0.006554
0.006387
0.009897
0.006262
0.009698
0.010943
0.00716
0.009881
0.005319
0.004566
0.010115
0.005843
0.005479
0.006248
0.005538
0.006907
0.011499
0.009479
0.011952
0.008713
0.008958
0.008348
0.006939
0.007404
0.00932
0.006274
0.011368
0.009592
0.006558
0.011506
0.012375
0.006961
0.008918
0.009572
0.00958
0.006384
0.01047
0.008951
0.009868
0.008043
0.014221
0.006773
0.00858
0.011333
0.011744
0.013112
0.01171
0.00894
0.008989
0.013112
0.010801
0.013613
0.014728
0.01212
0.014955
0.014478
0.01297
0.012048
0.010463
0.009234
0.011181
0.0129
0.015197
0.011287
0.015117
0.013947
0.014772
0.01417
0.01114
0.013407
0.013314
0.015014
0.016513
0.017133
0.012751
0.012102
0.018893
0.016625
0.018797
0.017726
0.015086
0.016707
0.019881
0.020664
0.01715
0.017978
0.014067
0.01741
0.016793
0.014891
0.015874
0.016106
0.021231
0.019732
0.021262
0.019544
0.019934
0.024615
0.021028
0.021804
0.021952
0.02412
0.02382
0.027124
0.0263
0.022795
0.024573
0.02225
0.025647
0.024319
0.030577
0.03006
0.026635
0.031516
0.033273
0.035084
0.029235
0.032727
0.031439
0.038445
0.036784
0.036873
0.035441
0.041253
0.041264
0.03835
0.040802
0.046535
0.049401
0.049858
0.048544
0.051024
0.05138
0.052584
0.05973
0.061051
0.062774
0.066962
0.067374
0.069875
0.072404
0.07612
0.081445
0.081363
0.084094
0.094996
0.093543
0.101527
0.1065
0.116175
0.119584
0.12864
0.135925
0.140796
0.157713
0.1625
0.178099
0.187222
0.203607
0.217499
0.237779
0.255473
0.270575
0.290061
0.316077
0.34327
0.365653
0.391836
0.42288
0.443737
0.468095
0.496543
0.514528
0.526024
0.528753
0.536477
0.529448
0.515675
0.503735
0.48141
0.462579
0.436056
0.410311
0.386752
0.366813
0.339245
0.32375
0.302766
0.289408
0.274333
0.259805
0.247657
0.236741
0.230308
0.220625
0.212359
0.2122
0.205958
0.207432
0.200154
0.205224
0.202816
0.204293
0.211018
0.218167
0.222745
0.227666
0.239304
0.248717
0.257732
0.275309
0.290221
0.30295
0.323297
0.346548
0.364668
0.385644
0.411821
0.432842
0.46173
0.482969
0.504819
0.515111
0.527553
0.534114
0.531851
0.527648
0.509866
0.49172
0.468257
0.448818
0.420112
0.390593
0.368728
0.340264
0.319708
0.295472
0.27048
0.254563
0.232198
0.220364
0.205099
0.19218
0.177315
0.165132
0.157789
0.14827
0.133059
0.128242
0.120215
0.117382
0.111361
0.103793
0.094586
0.091511
0.086125
0.083961
0.075497
0.075122
0.070995
0.069082
0.069292
0.065128
0.057767
0.060297
0.053013
0.052138
0.056053
0.048494
0.049526
0.04968
0.045826
0.040489
0.045816
0.042729
0.043612
0.041637
0.04104
0.036622
0.038411
0.037293
0.034409
0.030326
0.03532
0.035146
0.026892
0.027386
0.032371
0.030987
0.026362
0.030778
0.023404
0.024308
0.022885
0.025987
0.026093
0.021156
0.024227
0.022185
0.025815
0.020489
0.018205
0.021029
0.018062
0.021639
0.018688
0.022097
0.016955
0.016566
0.022548
0.018578
0.020157
0.015286
0.021207
0.015312
0.013389
0.016156
0.016474
0.018011
0.012552
0.014839
0.018627
0.017367
0.015761
0.016902
0.017422
0.01397
0.013518
0.013203
0.012344
0.016467
0.015459
0.015437
0.010644
0.011007
0.015074
0.014209
0.011396
0.012725
0.013131
0.01498
0.015896
0.009921
0.010705
0.010761
0.01271
0.014988
0.010173
0.009443
0.009559
0.014572
0.010441
0.010217
0.014288
0.007817
0.013402
0.007142
0.013131
0.014244
0.008411
0.011687
0.009314
0.007123
0.01074
0.012433
0.009301
0.011826
0.009714
0.008251
0.00997
0.007025
0.013268
0.008188
0.006269
0.012679
0.009475
0.005912
0.008467
0.012236
0.006895
0.005066
0.005622
0.010685
0.011971
0.00722
0.005698
0.005665
0.008406
0.006399
0.005962
0.006982
0.004945
0.007848
0.011054
0.010716
0.007448
0.00938
0.005573
0.009732
0.004498
0.010139
0.006587
0.010701
0.008185
0.004878
0.004663
0.01148
0.006542
0.0052
0.008734
0.010477
0.008156
0.00376
0.004387
0.007923
0.008465
0.004208
0.008287
0.010572
0.009108
0.004928
0.009375
0.004967
0.009614
0.00923
0.006196
0.00943
0.006236
0.005344
0.004289
0.004336
0.003341
0.005017
0.008054
0.004752
0.004476
0.010437
0.003232
0.004525
0.007362
0.006105
0.002865
0.007432
0.003766
0.007435
0.00961
0.00506
0.009099
0.006776
0.005507
0.004026
0.007866
0.008557
0.009933
0.009479
0.008647
0.003554
0.003621
0.005606
0.004622
0.007926
0.002756
0.008634
0.006312
0.006889
0.004107
0.008672
0.005483
0.007728
0.004905
0.007757
0.00389
0.004769
0.003985
0.006225
0.009678
0.003642
0.009678
0.007267
0.003971
0.008626
0.007782
0.002893
0.006552
0.006205
0.00682
0.00377
0.008119
0.005369
0.00898
0.002665
0.005569
0.004385
0.004884
0.007915
0.006755
0.004181
0.007995
0.008188
0.00241
0.006438
0.007132
0.005452
0.004249
0.00363
0.006088
0.007237
0.005539
0.002272
0.007371
0.004415
0.002029
0.001664
0.006753
0.006815
0.007004
0.004302
0.008689
0.003474
0.008754
0.001662
0.007137
0.005706
0.004379
0.002594
0.007171
0.008036
0.007732
0.006808
0.003696
0.003643
0.002957
0.002127
0.003528
0.003896
0.006124
0.007348
0.002926
0.005108
0.007995
0.003182
0.00589
0.006861
0.001969
0.003837
0.006421
0.002883
0.005034
0.001762
0.003208
0.004182
0.006231
0.002226
0.007665
0.00687
0.005653
0.008661
0.004013
0.003854
0.008491
0.008096
0.007928
0.007518
0.002293
0.005858
0.007015
0.007026
0.006053
0.008647
0.002266
0.005314
0.006495
0.004792
0.001438
0.005719
0.007969
0.0025
0.006847
0.002005
0.00422
0.003167
0.002547
0.007432
0.001517
0.007512
0.005743
0.007751
0.001689
0.008075
0.007431
0.001787
0.001319
0.006432
0.006394
0.005127
0.004036
0.007585
0.004801
0.007865
0.005614
0.003377
0.002163
0.00607
0.008308
0.001227
0.002359
0.002839
0.003036
0.007664
0.007295
0.005327
0.008061
0.006147
0.000947
0.004385
0.003386
0.00704
0.003534
0.001766
0.006437
0.007662
0.00095
0.002093
0.007273
0.006224
0.003369
0.001211
0.008358
0.003255
0.003238
0.007977
0.001769
0.006537
0.003989
0.00678
0.007738
0.00505
0.005255
0.007336
0.007492
0.007038
0.001525
0.00101
0.003737
0.00116
0.002797
0.003258
0.001396
0.00736
0.00621
0.008002
0.008202
0.002137
0.003822
0.00252
0.003915
0.00419
0.00399
0.001402
0.002793
0.002388
0.008287
0.005459
0.007151
0.002931
0.008072
0.007217
0.00525
0.007255
0.003932
0.00621
0.005989
0.003198
0.005518
0.005909
0.00226
0.002033
0.002511
0.007754
0.002379
0.000814
0.004962
0.006363
0.007635
0.003759
0.002333
0.003964
0.003312
0.003391
0.003298
0.004249
0.007843
0.008238
0.004605
0.004672
0.006522
0.00728
0.005451
0.002286
0.002987
