Number of data points      : 1000 
Chemical shift range (ppm) : 1 1
Chemical shift range (Hz)  : 1180.0 1220.0
0.001181
0.000872
0.001787
0.001365
0.003958
0.003577
0.002404
0.001968
0.00193
0.003694
0.000801
0.0018
0.002975
0.001674
0.002758
0.002861
0.001725
0.002536
0.002262
0.001349
0.00099
0.002554
0.003253
0.001584
0.003114
0.002227
0.003983
0.003188
0.003956
0.001694
0.002475
0.001581
0.002253
0.002008
0.002339
0.003596
0.001859
0.002753
0.003702
0.00253
0.00362
0.002077
0.001674
0.001048
0.000993
0.002668
0.001939
0.002278
0.004077
0.003754
0.00192
0.00252
0.00305
0.002114
0.001366
0.002216
0.003685
0.003251
0.003004
0.003928
0.003064
0.001119
0.002216
0.000875
0.002398
0.001583
0.003386
0.002922
0.000917
0.001472
0.003547
0.00149
0.001541
0.004158
0.001556
0.003718
0.002614
0.004016
0.003596
0.001724
0.001379
0.00346
0.003018
0.001596
0.003754
0.001007
0.003568
0.004224
0.002053
0.002614
0.001213
0.00425
0.00349
0.001734
0.003714
0.00336
0.001498
0.002656
0.002234
0.002681
0.002169
0.002427
0.003939
0.002392
0.004126
0.004012
0.004312
0.003687
0.001921
0.003924
0.00302
0.0025
0.001563
0.003977
0.001216
0.002994
0.001754
0.002513
0.002064
0.003082
0.002663
0.002452
0.001844
0.001678
0.002432
0.004219
0.004219
0.002717
0.002554
0.002189
0.002974
0.002145
0.003974
0.003731
0.001239
0.00187
0.002424
0.004489
0.002528
0.003363
0.003239
0.004042
0.003799
0.001695
0.003316
0.001515
0.003047
0.003125
0.001665
0.003492
0.004625
0.004507
0.00246
0.004341
0.003211
0.003665
0.001857
0.00232
0.002024
0.002102
0.004502
0.004589
0.003177
0.002288
0.001633
0.00162
0.004687
0.004344
0.002466
0.002979
0.001481
0.002757
0.001557
0.001491
0.003852
0.003894
0.004538
0.002559
0.003903
0.003403
0.003399
0.001838
0.001925
0.001992
0.002614
0.001659
0.003415
0.002539
0.004707
0.003746
0.004681
0.001847
0.002791
0.001801
0.002004
0.002181
0.00412
0.002286
0.004108
0.003133
0.00407
0.003102
0.003068
0.004376
0.002314
0.002247
0.00326
0.003272
0.002358
0.003434
0.004122
0.004277
0.005037
0.005233
0.003929
0.003405
0.003047
0.002438
0.005097
0.004315
0.002872
0.003912
0.002415
0.003211
0.00535
0.004593
0.005343
0.002304
0.00306
0.003881
0.00436
0.003246
0.004783
0.004421
0.005372
0.003949
0.00321
0.002951
0.002553
0.004403
0.003249
0.003344
0.004325
0.005458
0.003255
0.005767
0.004831
0.002587
0.003176
0.003846
0.002842
0.00443
0.005693
0.00477
0.00339
0.002866
0.005703
0.003194
0.005504
0.004055
0.00565
0.003254
0.003095
0.005039
0.006113
0.004854
0.00597
0.003535
0.005258
0.005669
0.003537
0.004081
0.005018
0.00458
0.004178
0.003576
0.005645
0.005209
0.005116
0.005477
0.004452
0.006459
0.00662
0.005775
0.004499
0.006615
0.004996
0.004089
0.006897
0.006016
0.004865
0.006899
0.006462
0.005209
0.006519
0.006623
0.007153
0.005689
0.006191
0.006169
0.006948
0.007165
0.006413
0.006414
0.006125
0.005508
0.005863
0.00593
0.004427
0.005124
0.005681
0.0063
0.006789
0.005786
0.00519
0.007829
0.00575
0.008105
0.006706
0.005146
0.005838
0.00825
0.008011
0.007855
0.005479
0.006028
0.007035
0.006181
0.008058
0.006404
0.006573
0.008766
0.007869
0.008359
0.008578
0.006074
0.007134
0.007294
0.007688
0.008575
0.006966
0.007801
0.006884
0.007502
0.008506
0.008013
0.009543
0.009785
0.009941
0.008203
0.009714
0.01044
0.008102
0.009881
0.010738
0.009453
0.01057
0.010879
0.01121
0.009278
0.011072
0.009326
0.011367
0.010891
0.009161
0.009733
0.009457
0.009451
0.012074
0.011418
0.010228
0.010895
0.010497
0.010456
0.012305
0.010695
0.011248
0.014016
0.011373
0.01264
0.014745
0.014739
0.014517
0.015479
0.014385
0.0127
0.013891
0.013552
0.01579
0.015467
0.016439
0.016051
0.015495
0.017649
0.015053
0.016144
0.015615
0.018937
0.019058
0.018765
0.018912
0.019308
0.020432
0.018687
0.019099
0.020999
0.019803
0.021161
0.021866
0.02289
0.022776
0.022633
0.02348
0.023981
0.023662
0.025944
0.026298
0.026892
0.028841
0.026926
0.027713
0.029992
0.029835
0.02953
0.03107
0.03285
0.033968
0.035184
0.034301
0.036147
0.036273
0.037441
0.039569
0.042444
0.042764
0.043888
0.043635
0.046734
0.047692
0.050463
0.05084
0.053207
0.053773
0.057848
0.058579
0.061371
0.064491
0.064675
0.068719
0.071526
0.073157
0.076591
0.07851
0.081162
0.083238
0.088431
0.090104
0.093176
0.098583
0.099714
0.104603
0.108449
0.112059
0.114576
0.118477
0.123783
0.126504
0.13059
0.135822
0.136484
0.142421
0.144227
0.145949
0.14822
0.150234
0.152169
0.156276
0.155856
0.156399
0.156118
0.159172
0.157432
0.157796
0.155634
0.154967
0.155311
0.153037
0.153316
0.148646
0.147707
0.146932
0.147609
0.143362
0.143592
0.141111
0.140055
0.140823
0.140918
0.140025
0.140965
0.139114
0.138503
0.141614
0.139945
0.1425
0.144041
0.14304
0.143855
0.145363
0.146559
0.149377
0.150455
0.152337
0.153495
0.153555
0.155386
0.154877
0.157284
0.156321
0.158301
0.157219
0.157519
0.157728
0.155472
0.152663
0.15126
0.149478
0.145317
0.143349
0.141416
0.139115
0.133294
0.131895
0.128625
0.123315
0.120845
0.115298
0.113371
0.109727
0.10319
0.099605
0.096749
0.094112
0.091448
0.088445
0.082488
0.080801
0.077128
0.076174
0.073292
0.069961
0.068217
0.066756
0.061372
0.060457
0.058417
0.057272
0.0543
0.052491
0.051359
0.050713
0.047065
0.047
0.046356
0.042947
0.043371
0.041388
0.041526
0.03846
0.038338
0.037349
0.035858
0.03503
0.035416
0.03351
0.033091
0.031427
0.029366
0.029559
0.028499
0.02843
0.027492
0.027607
0.026679
0.026389
0.024164
0.025636
0.022416
0.022581
0.021316
0.02219
0.022851
0.0219
0.021154
0.021087
0.020652
0.019822
0.019864
0.017749
0.018612
0.018975
0.01689
0.016887
0.017285
0.018151
0.018149
0.016418
0.016985
0.014851
0.014043
0.015608
0.016609
0.01327
0.013693
0.013341
0.014147
0.013961
0.013565
0.012615
0.014225
0.014037
0.012716
0.012589
0.012096
0.013005
0.01373
0.012321
0.011979
0.011725
0.010327
0.010143
0.01147
0.010691
0.010508
0.011071
0.008898
0.008972
0.010975
0.011452
0.009482
0.009413
0.009935
0.008936
0.009587
0.008587
0.008438
0.007693
0.009579
0.00886
0.008021
0.007918
0.00757
0.008012
0.008136
0.009108
0.008021
0.007755
0.009534
0.006641
0.007682
0.007087
0.008747
0.008541
0.009012
0.00802
0.006936
0.008988
0.006913
0.008335
0.00736
0.008587
0.007549
0.006656
0.007515
0.007157
0.007392
0.008335
0.006037
0.006149
0.007111
0.007331
0.006103
0.006781
0.007605
0.006785
0.007923
0.006965
0.006589
0.004868
0.006612
0.00624
0.004464
0.005864
0.005579
0.004245
0.004623
0.00601
0.004142
0.004429
0.005049
0.005829
0.00453
0.005558
0.003849
0.006722
0.005434
0.0063
0.004248
0.00683
0.004117
0.003869
0.003605
0.005393
0.00387
0.006668
0.005872
0.004009
0.005505
0.004854
0.005973
0.003331
0.00406
0.005038
0.005915
0.004485
0.003974
0.0049
0.003118
0.004311
0.005577
0.004812
0.003301
0.00432
0.004536
0.004696
0.003757
0.00325
0.005518
0.005609
0.005704
0.004837
0.006037
0.002925
0.00516
0.002732
0.005802
0.004722
0.005142
0.002706
0.004581
0.005374
0.005337
0.00508
0.004847
0.00341
0.003457
0.005644
0.004303
0.004406
0.002568
0.003689
0.002861
0.005481
0.004687
0.003728
0.003928
0.004254
0.005374
0.004806
0.004837
0.00246
0.003885
0.00517
0.00309
0.00519
0.00428
0.005393
0.003368
0.003722
0.00498
0.003192
0.003929
0.003229
0.005204
0.003775
0.003141
0.004398
0.002674
0.002273
0.001954
0.003376
0.004064
0.002165
0.002194
0.003963
0.003593
0.005126
0.004128
0.004446
0.004134
0.002039
0.004381
0.002291
0.003361
0.003781
0.003252
0.003595
0.004766
0.002344
0.003114
0.003648
0.003335
0.001982
0.001837
0.004254
0.004363
0.002983
0.003247
0.001672
0.003472
0.003432
0.00408
0.004618
0.002468
0.004014
0.004509
0.00472
0.003617
0.00382
0.004267
0.001933
0.002829
0.002762
0.002116
0.004324
0.002809
0.003749
0.004672
0.00357
0.003553
0.002495
0.001419
0.002348
0.001635
0.00241
0.00452
0.003098
0.00357
0.002192
0.003004
0.002635
0.00209
0.001843
0.004449
0.001346
0.003985
0.003608
0.002244
0.003764
0.00293
0.001619
0.001242
0.00436
0.004349
0.001642
0.001329
0.003124
0.004483
0.001513
0.001911
0.00378
0.004077
0.003801
0.002876
0.003437
0.002303
0.003664
0.002976
0.002346
0.001358
0.003793
0.001749
0.001868
0.001622
0.003517
0.004116
0.003917
0.001249
0.004337
0.003406
0.001031
0.003099
0.003304
0.003077
0.001743
0.002929
0.00115
0.001606
0.002891
0.001431
0.003729
0.003766
0.001014
0.003743
0.002577
0.003289
0.003044
0.001635
0.004249
0.001607
0.002488
0.002087
0.003761
0.001981
0.00293
0.002425
0.002951
0.000914
0.003115
0.001673
0.003889
0.000918
0.003375
0.004062
0.001219
0.001429
0.002241
0.001996
0.001914
0.000923
0.001879
0.001167
0.000961
0.001562
0.002897
0.003753
0.003505
0.001955
0.00391
0.002696
0.001279
0.004086
0.003048
0.003213
0.002414
0.003759
0.002042
0.000848
0.001395
0.002356
0.003582
0.000887
0.003642
0.003624
0.001769
0.001748
0.00098
0.002281
0.002423
0.003126
0.000822
0.002344
0.002866
0.001237
0.002612
0.003737
0.003097
0.003329
0.000724
0.002696
0.001904
0.002184
0.001699
0.003808
0.002183
0.003178
0.000943
0.000784
0.001782
0.00195
0.003929
0.002872
0.000673
0.002559
0.001726
0.003497
0.001452
0.000889
0.001705
0.003994
0.002327
0.003472
0.001066
0.000736
0.003193
0.001596
0.002604
0.000847
0.002244
0.003866
