Number of data points      : 381
Chemical shift range (ppm) : 7.392225 7.322501
Chemical shift range (Hz)  : 7020.063965 6953.849609
114
116
118
120
122
124
126
129
131
133
136
139
141
143
146
149
152
155
158
161
164
167
170
173
177
180
183
187
190
194
197
201
204
208
212
215
219
224
228
232
236
240
244
248
253
257
261
265
271
275
280
284
289
293
298
303
308
312
317
322
327
332
337
344
348
354
359
366
371
377
383
388
395
401
407
415
421
428
436
444
453
461
470
479
488
498
509
519
531
543
554
568
581
595
609
624
640
657
674
693
712
733
754
776
799
823
848
874
903
931
960
992
1025
1059
1092
1127
1164
1202
1243
1287
1329
1373
1417
1464
1512
1566
1618
1670
1725
1778
1834
1894
1951
2011
2070
2133
2195
2261
2326
2391
2459
2526
2594
2667
2735
2807
2879
2948
3024
3096
3165
3237
3309
3382
3450
3522
3590
3658
3726
3794
3863
3925
3993
4056
4113
4175
4232
4289
4340
4391
4442
4493
4539
4584
4624
4658
4692
4726
4760
4789
4817
4840
4857
4874
4891
4902
4908
4914
4914
4914
4914
4902
4897
4879
4868
4845
4828
4806
4777
4749
4715
4681
4641
4601
4556
4510
4465
4414
4363
4306
4255
4198
4135
4078
4016
3953
3885
3823
3755
3686
3618
3550
3478
3410
3337
3265
3197
3124
3056
2984
2912
2839
2771
2699
2630
2562
2490
2425
2357
2292
2226
2164
2101
2039
1976
1917
1860
1803
1747
1693
1640
1588
1538
1488
1441
1395
1349
1307
1265
1224
1184
1147
1110
1075
1041
1008
977
947
918
890
859
833
809
786
764
741
719
700
682
664
646
631
615
601
585
572
559
550
536
524
514
503
493
484
475
465
457
449
441
433
426
419
412
406
399
393
387
380
375
369
363
357
350
345
340
334
329
324
319
315
310
306
300
296
292
287
283
278
274
270
266
262
258
253
250
246
242
238
235
231
228
224
221
217
214
211
210
206
203
200
197
194
191
189
184
181
178
176
173
171
169
166
164
163
161
158
157
155
152
150
148
143
142
140
139
137
136
134
133
132
131
