Number of data points      : 381
Chemical shift range (ppm) : 7.392225 7.322501
Chemical shift range (Hz)  : 7020.063965 6953.849609
173
175
176
177
179
180
182
183
184
186
187
190
190
192
193
195
197
198
200
202
205
206
208
210
211
213
215
217
219
221
223
226
228
230
232
235
237
241
244
246
249
252
255
258
260
263
267
270
275
278
281
285
288
292
295
299
303
307
311
315
319
324
328
333
337
342
347
353
358
364
370
376
383
389
395
403
409
416
424
432
441
450
459
468
478
489
500
512
523
535
548
561
575
588
604
618
634
650
666
684
702
720
740
760
780
801
823
845
870
893
917
947
972
1001
1022
1049
1077
1106
1136
1170
1201
1232
1263
1295
1329
1363
1399
1433
1470
1506
1542
1576
1614
1650
1688
1727
1766
1803
1843
1880
1920
1962
1999
2039
2079
2119
2158
2198
2238
2278
2317
2357
2394
2434
2471
2510
2546
2582
2618
2655
2691
2727
2759
2795
2827
2859
2891
2924
2952
2980
3008
3036
3064
3088
3112
3128
3153
3173
3201
3221
3241
3257
3273
3289
3301
3317
3329
3337
3349
3357
3361
3369
3369
3373
3377
3377
3377
3373
3373
3369
3361
3357
3349
3337
3329
3317
3305
3289
3277
3257
3241
3221
3205
3181
3165
3141
3116
3092
3068
3040
3016
2988
2960
2928
2900
2867
2839
2807
2775
2743
2711
2675
2642
2606
2570
2538
2502
2468
2434
2397
2360
2326
2289
2255
2218
2181
2147
2110
2076
2042
2008
1971
1937
1903
1871
1837
1803
1772
1741
1709
1678
1646
1618
1588
1558
1530
1502
1476
1448
1421
1393
1369
1343
1319
1297
1271
1249
1227
1205
1184
1164
1143
1124
1104
1086
1068
1050
1033
1015
999
982
967
951
937
921
907
893
879
865
852
839
826
813
801
788
776
764
752
741
729
717
706
693
682
671
660
650
639
629
619
609
598
588
578
568
559
549
540
531
521
512
503
494
485
476
467
459
450
442
434
426
418
411
403
396
389
383
376
369
362
355
349
343
337
329
323
318
314
308
303
298
293
289
285
281
277
273
269
264
259
256
252
248
246
243
240
236
233
231
228
225
