Number of data points      : 418
Chemical shift range (ppm) : 7.402473 7.325978
Chemical shift range (Hz)  : 7029.795898 6957.151855
58
59
61
63
64
66
68
70
72
73
75
77
79
81
83
85
87
88
90
92
94
97
99
101
103
105
107
109
110
112
114
116
118
120
123
124
126
128
132
138
140
142
141
144
146
148
151
153
155
157
160
162
164
168
171
173
176
179
181
184
186
189
192
194
197
200
203
206
209
212
215
219
222
226
230
233
237
241
244
249
253
258
263
268
273
278
284
289
295
302
308
315
322
330
337
345
354
363
372
381
391
401
412
423
435
448
460
473
487
502
516
531
548
564
581
599
617
636
656
677
697
719
742
765
788
812
837
862
889
916
943
971
999
1029
1059
1089
1120
1153
1184
1217
1251
1285
1319
1353
1387
1423
1456
1492
1528
1564
1602
1636
1674
1711
1747
1783
1820
1857
1894
1928
1965
1999
2033
2067
2101
2136
2167
2201
2232
2263
2292
2320
2349
2377
2403
2428
2454
2478
2498
2518
2538
2562
2578
2594
2610
2614
2626
2646
2650
2659
2663
2671
2671
2671
2675
2671
2671
2667
2663
2655
2646
2638
2626
2614
2606
2590
2574
2558
2538
2522
2498
2478
2457
2431
2408
2383
2354
2326
2297
2269
2238
2209
2178
2144
2113
2079
2045
2011
1976
1945
1911
1874
1837
1803
1769
1733
1699
1662
1628
1592
1558
1524
1490
1456
1421
1387
1355
1323
1291
1259
1228
1197
1168
1140
1110
1082
1053
1026
997
971
945
920
896
871
848
823
801
779
758
738
718
699
681
663
645
629
612
596
580
565
551
537
526
513
501
489
477
465
455
444
434
424
414
405
396
387
379
371
363
355
348
341
334
327
321
315
309
303
297
292
286
281
276
271
267
262
258
253
249
245
241
236
233
229
227
224
215
212
208
205
202
198
195
192
189
186
182
181
178
175
171
167
165
166
161
158
156
153
150
148
145
143
140
138
135
133
131
128
126
124
121
119
117
115
112
110
108
106
103
101
99
97
95
93
91
89
88
87
84
83
82
81
79
78
76
75
73
72
71
70
71
70
69
68
68
67
67
66
66
65
65
65
66
66
66
66
66
66
66
66
64
64
64
64
64
65
65
66
