Number of data points      : 579
Chemical shift range (ppm) : 7.530759 7.424800
Chemical shift range (Hz)  : 7151.623047 7050.998535
237
238
240
241
242
244
246
247
249
251
252
253
255
256
257
259
260
262
263
264
265
266
267
268
270
271
272
273
274
274
275
276
277
278
279
280
281
282
283
284
285
286
286
287
288
289
290
291
292
293
294
295
296
297
298
300
301
302
303
305
306
308
309
311
312
314
315
317
319
320
323
325
327
329
331
333
336
338
340
343
345
348
351
354
357
360
363
366
370
373
376
380
384
388
392
395
399
402
405
410
413
417
422
427
432
436
443
448
453
458
463
469
475
480
486
492
498
504
510
516
523
530
536
543
551
558
564
571
579
587
595
602
612
620
628
637
646
655
666
675
683
693
704
714
726
737
748
759
770
782
794
807
819
832
846
860
873
889
903
918
934
951
967
984
1002
1019
1039
1058
1077
1097
1119
1140
1161
1184
1207
1232
1257
1281
1307
1333
1361
1387
1417
1445
1476
1506
1536
1568
1602
1634
1668
1703
1739
1775
1812
1849
1888
1928
1968
2008
2048
2090
2133
2175
2218
2263
2309
2354
2400
2445
2494
2542
2590
2638
2687
2735
2787
2835
2887
2936
2988
3040
3088
3141
3193
3245
3293
3345
3398
3450
3494
3550
3601
3647
3698
3749
3800
3846
3897
3942
3988
4033
4078
4124
4169
4209
4255
4294
4334
4374
4408
4448
4482
4516
4550
4578
4612
4641
4669
4698
4720
4743
4766
4783
4806
4823
4840
4851
4862
4874
4885
4891
4897
4902
4902
4902
4902
4902
4897
4891
4879
4868
4857
4845
4834
4817
4800
4783
4760
4737
4715
4686
4658
4630
4601
4573
4539
4505
4470
4436
4397
4357
4317
4277
4238
4192
4152
4107
4061
4016
3971
3925
3874
3828
3777
3732
3681
3630
3579
3527
3478
3430
3377
3325
3273
3225
3173
3120
3068
3020
2968
2916
2867
2819
2767
2719
2671
2622
2574
2526
2482
2434
2388
2343
2297
2255
2212
2170
2124
2084
2042
2002
1962
1925
1886
1849
1812
1775
1741
1707
1672
1638
1606
1574
1544
1512
1484
1454
1425
1397
1371
1343
1319
1291
1267
1243
1219
1197
1174
1153
1131
1112
1092
1072
1052
1033
1015
998
981
964
947
931
916
903
889
873
857
846
832
819
807
794
782
770
759
748
737
726
714
704
694
684
674
665
656
646
638
629
621
612
604
596
588
580
573
565
558
550
543
536
529
522
516
509
503
497
490
484
478
472
466
460
455
449
443
438
433
427
422
417
412
407
403
398
393
388
384
380
375
371
367
363
358
354
350
346
342
339
335
331
328
324
321
318
315
312
309
306
303
301
298
295
293
291
288
286
284
281
279
277
275
273
271
269
268
266
264
263
261
259
258
257
255
254
252
251
249
248
247
246
244
243
242
240
240
238
237
236
234
232
231
229
228
226
225
224
223
221
220
218
217
215
212
210
208
207
204
202
202
200
198
196
195
193
191
189
187
186
184
182
180
178
176
174
172
171
169
167
165
163
161
160
159
157
157
155
153
152
149
149
146
145
143
142
140
139
138
136
135
