Number of data points      : 353
Chemical shift range (ppm) : 7.945628 7.881028
Chemical shift range (Hz)  : 7545.605957 7484.257812
235
238
240
243
245
248
251
253
256
259
262
265
268
271
274
278
281
285
288
291
294
297
301
305
308
312
316
320
324
328
332
336
340
345
349
354
359
364
369
375
380
386
392
398
404
410
417
424
431
439
447
455
464
473
482
492
503
514
524
535
548
561
575
589
604
620
636
653
671
691
711
733
754
777
800
822
848
873
901
930
960
992
1024
1058
1092
1127
1164
1201
1241
1283
1325
1367
1411
1458
1504
1554
1602
1652
1703
1755
1809
1863
1920
1976
2036
2093
2153
2215
2278
2337
2403
2468
2530
2594
2663
2727
2791
2859
2924
2992
3056
3124
3189
3253
3321
3386
3450
3510
3573
3635
3698
3755
3817
3874
3931
3982
4039
4084
4135
4186
4232
4272
4317
4357
4397
4431
4465
4493
4527
4550
4573
4595
4612
4630
4647
4658
4664
4669
4675
4675
4669
4664
4658
4647
4630
4618
4595
4578
4550
4527
4499
4465
4431
4391
4351
4311
4272
4226
4181
4135
4084
4033
3976
3925
3868
3811
3749
3692
3630
3567
3505
3442
3377
3313
3249
3181
3116
3048
2984
2916
2851
2787
2719
2655
2590
2526
2459
2394
2332
2269
2209
2147
2087
2030
1971
1914
1860
1806
1752
1701
1650
1600
1552
1506
1458
1413
1371
1329
1289
1249
1211
1174
1139
1103
1070
1038
1008
978
948
921
894
869
843
822
800
778
757
737
717
699
682
665
649
633
618
603
590
576
564
552
540
529
518
507
497
487
478
469
460
451
443
434
426
418
411
403
396
389
382
375
368
360
353
347
340
334
328
322
316
310
303
298
292
286
280
275
270
264
259
254
248
243
238
233
229
224
219
215
210
206
202
197
192
189
185
181
178
175
171
168
165
160
156
152
149
147
144
141
137
134
130
127
124
114
111
108
105
102
99
96
93
92
89
86
83
80
77
74
71
69
67
65
62
