Number of data points      : 445
Chemical shift range (ppm) : 9.351645 9.270208
Chemical shift range (Hz)  : 8880.835938 8803.500000
133
135
136
137
139
140
141
142
144
145
146
148
149
151
152
153
154
156
157
159
160
162
164
165
167
169
170
172
174
176
178
180
182
184
186
188
190
192
192
194
196
198
200
203
205
207
210
212
216
218
221
224
226
230
233
236
239
242
246
249
253
258
262
266
270
274
278
282
287
291
296
300
305
309
314
320
324
330
335
342
347
354
360
367
374
381
388
396
403
411
419
427
435
444
453
463
472
481
491
502
512
523
534
546
557
569
581
594
607
620
634
648
662
676
691
706
721
738
754
771
787
804
821
839
857
876
894
913
931
951
970
989
1009
1029
1049
1070
1090
1112
1133
1154
1175
1197
1218
1239
1261
1283
1305
1327
1349
1371
1391
1413
1435
1458
1478
1500
1522
1542
1564
1584
1606
1626
1646
1666
1686
1707
1727
1745
1763
1783
1800
1820
1837
1854
1871
1888
1905
1923
1937
1954
1968
1982
1996
2011
2022
2036
2048
2059
2070
2082
2093
2101
2110
2119
2127
2136
2141
2150
2155
2158
2164
2170
2172
2175
2178
2178
2181
2184
2184
2184
2181
2178
2175
2172
2170
2164
2161
2155
2147
2141
2133
2124
2116
2104
2093
2082
2070
2059
2045
2033
2019
2002
1988
1971
1954
1937
1920
1903
1883
1863
1843
1823
1803
1780
1761
1737
1715
1693
1668
1646
1622
1598
1574
1550
1526
1502
1476
1452
1425
1401
1375
1349
1325
1299
1275
1251
1224
1201
1177
1151
1127
1103
1079
1055
1032
1008
985
962
940
918
896
874
854
833
814
794
775
756
738
719
701
684
667
651
633
617
602
588
575
560
548
535
522
510
499
488
477
466
455
445
436
427
418
410
402
394
386
379
372
365
358
351
343
337
332
326
320
315
310
305
300
295
290
286
281
277
273
268
264
263
259
255
251
247
243
240
236
232
229
226
222
219
215
212
208
205
201
198
195
192
189
186
182
179
176
173
170
167
164
161
158
156
153
148
146
143
140
137
135
132
129
127
124
122
119
117
114
111
109
106
104
102
99
97
94
92
90
88
85
83
82
79
77
74
72
71
69
67
66
64
63
61
60
58
57
56
55
54
52
51
50
49
48
47
46
45
45
44
43
43
42
42
41
41
41
40
40
40
40
40
40
39
40
40
40
