Number of data points      : 373
Chemical shift range (ppm) : 8.166147 8.097887
Chemical shift range (Hz)  : 7755.022949 7690.199219
229
230
232
233
234
236
237
238
240
242
243
245
247
249
251
253
255
258
260
264
266
269
271
274
277
280
283
286
290
293
297
300
304
308
311
315
319
323
328
336
340
344
349
353
358
363
368
373
378
383
387
393
398
403
409
414
420
425
431
437
443
449
455
462
468
475
482
489
497
504
509
518
526
535
544
553
563
573
584
595
607
618
631
643
657
671
685
701
716
734
751
769
787
807
827
848
869
891
916
940
964
991
1016
1045
1069
1099
1129
1160
1193
1225
1259
1293
1329
1365
1403
1441
1482
1522
1562
1604
1646
1691
1735
1778
1823
1871
1920
1965
2013
2062
2113
2161
2209
2261
2309
2363
2414
2462
2514
2566
2618
2667
2719
2771
2823
2875
2924
2976
3024
3076
3124
3173
3221
3269
3313
3361
3406
3454
3494
3539
3584
3624
3669
3709
3749
3783
3823
3857
3891
3925
3959
3993
4022
4050
4078
4107
4130
4158
4181
4198
4220
4238
4255
4272
4283
4300
4311
4317
4328
4334
4340
4345
4345
4345
4345
4345
4340
4334
4328
4317
4317
4300
4289
4277
4260
4243
4226
4203
4181
4158
4135
4107
4078
4050
4022
3993
3959
3925
3891
3851
3817
3777
3738
3692
3652
3613
3567
3522
3474
3430
3382
3333
3285
3233
3185
3132
3080
3028
2980
2924
2871
2819
2767
2711
2659
2602
2550
2494
2442
2388
2334
2280
2226
2172
2121
2070
2016
1965
1914
1866
1815
1766
1719
1672
1624
1580
1536
1492
1448
1405
1365
1325
1285
1247
1208
1173
1137
1103
1069
1036
1005
975
945
917
890
864
838
814
790
768
746
725
704
685
667
650
633
617
602
587
574
560
548
536
524
514
503
494
485
476
467
460
452
445
438
430
424
418
412
406
401
395
390
385
380
376
371
367
362
358
355
350
347
343
339
335
331
328
324
320
317
313
310
306
303
300
296
293
290
286
282
279
278
274
271
269
266
263
260
258
255
252
250
247
245
243
240
238
236
233
232
230
228
